File: SetupData/glassy_carbon_saxs_std.txt
#Q (Angs^-1) I (cm^-1)  I_err(cm^-1)
0.00827568	34.9334	0.398241
0.00888450	34.4272	0.392470
0.00954735	34.0422	0.388081
0.01026900	33.6986	0.384164
0.01105780	33.3525	0.380219
0.01191830	33.0275	0.376514
0.01286110	32.665	0.372382
0.01389340	32.3067	0.368296
0.01502510	31.9705	0.364464
0.01626850	31.5591	0.359774
0.01763650	31.1838	0.355495
0.01914320	30.8618	0.351825
0.02080510	30.5143	0.347863
0.02264220	30.085	0.342969
0.02467500	29.6904	0.338471
0.02692890	29.25	0.333450
0.02943170	28.89	0.329346
0.03221560	28.4493	0.324322
0.03531810	28.066	0.319952
0.03878270	27.705	0.315837
0.04265880	27.3313	0.311577
0.04700390	26.9741	0.307504
0.05188580	26.677	0.304117
0.05738140	26.4012	0.300973
0.06358290	26.1774	0.298423
0.07059620	25.9047	0.295313
0.07854840	25.5287	0.291028
0.08758630	24.9177	0.284062
0.09788540	23.9465	0.272990
0.109655	22.4721	0.256182
0.114312	21.7772	0.248260
0.118395	21.1129	0.240687
0.122624	20.4011	0.232573
0.123142	20.2871	0.231272
0.127004	19.6851	0.224410
0.13154	18.9098	0.215572
0.136239	18.0892	0.206217
0.138643	17.6796	0.201547
0.141105	17.2641	0.196811
0.146145	16.3728	0.186650
0.151365	15.4583	0.176225
0.156513	14.5877	0.166300
0.156771	14.5631	0.166019
0.162371	13.6167	0.155230
0.16817	12.6685	0.144421
0.174177	11.7523	0.133976
0.177181	11.3115	0.128951
0.180398	10.8622	0.123829
0.186841	9.961979	0.113567
0.193515	9.116906	0.103933
0.200427	8.325578	0.094912
0.201165	8.224897	0.093764
0.207586	7.541931	0.085978
0.215	6.854391	0.078140
0.222679	6.216070	0.070863
0.229095	5.715911	0.065161
0.230633	5.582366	0.063639
0.238871	4.999113	0.056990
0.247402	4.463604	0.050885